XF2029,595DRLP
Wavelength (nm),%T
1099.951904,73.44004822
1099.015747,93.64549255
1097.96167,93.538414
1097.024048,83.35303497
1095.968384,81.878479
1095.029419,84.36289978
1093.972168,71.04776764
1093.031616,76.21952057
1091.972778,79.87649536
1091.030884,83.38210297
1089.970337,86.10906982
1089.026978,74.6563797
1087.964966,70.81748962
1087.020142,70.63627625
1085.956421,83.87744141
1085.010254,82.43711853
1083.944946,69.58283997
1082.997314,73.63240814
1082.049072,70.2078476
1080.981445,75.67147064
1080.031738,86.10611725
1078.962524,76.02349854
1078.011353,71.00968933
1076.940552,66.93435669
1075.988037,66.12922668
1075.03479,68.55871582
1073.96167,63.26542664
1073.00708,70.63428497
1072.051758,74.80392456
1070.976318,71.73260498
1070.019653,69.02138519
1068.942505,68.35765839
1067.984497,61.55849838
1067.025757,68.74452209
1065.946411,59.72060013
1064.986206,62.30044937
1064.025391,62.21014404
1062.943726,67.17294312
1061.981567,66.53456879
1061.018677,66.24005127
1060.055176,61.70669174
1058.970459,66.80544281
1058.005615,64.35787964
1057.040039,66.66493225
1055.953125,65.34337616
1054.986206,65.98670197
1054.018555,59.89764786
1053.050415,62.90081024
1051.960327,67.48879242
1050.990723,58.02986526
1050.020508,60.19898224
1049.049561,66.93716431
1047.956543,64.04627991
1046.984253,60.59988785
1046.011353,62.68302917
1045.037842,65.10348511
1043.941772,65.86909485
1042.966797,58.50811005
1041.991333,62.20483017
1041.015015,69.2519455
1040.038208,65.07885742
1039.060669,68.13200378
1037.960205,65.38700104
1036.981445,65.38684082
1036.001953,65.43247986
1035.021729,63.96333694
1034.041016,65.3757782
1033.05957,63.11413574
1031.954712,64.45063019
1030.971924,67.36991882
1029.988525,66.10797119
1029.004517,71.70283508
1028.019775,69.2357254
1027.034546,69.24768829
1026.048584,71.19787598
1024.938599,69.38455963
1023.951355,70.88713837
1022.96344,70.10834503
1021.974854,73.39334106
1020.985718,76.44351959
1019.995911,74.04653931
1019.005432,76.73167419
1018.014404,74.02685547
1017.022705,75.15135193
1016.030396,75.9037323
1015.037415,77.54722595
1014.043823,76.48085022
1013.049683,78.35041046
1012.05481,78.72898102
1011.059387,79.2466507
1009.938782,79.74886322
1008.942017,78.26076508
1007.94458,79.91440582
1006.946594,80.36481476
1005.947937,80.5157547
1004.948669,82.40548706
1003.948792,81.39481354
1002.948303,82.55422974
1001.947205,83.02497101
1000.945496,83.46199799
999.9431152,81.44134521
998.9401245,82.51654816
998.0620728,81.36309052
997.0579224,83.38109589
996.0532227,82.62464142
995.0478516,80.23579407
994.0418701,81.44738007
993.0352783,80.71120453
992.0281372,80.6058197
991.0203247,80.07334137
990.0119019,80.05789185
989.0028687,79.31988525
987.9932251,77.57792664
986.9830322,76.63951111
985.972168,76.38751984
984.9606934,76.63772583
983.9486084,74.9706192
983.062561,75.12149811
982.0493774,72.61029053
981.0355835,72.51778412
980.0211182,72.03000641
979.0061035,70.80357361
977.9904785,68.71892548
976.9743042,67.75060272
975.9574585,67.77941132
974.9400024,67.70397949
974.0492554,65.92874146
973.0307007,65.2527771
972.0115967,64.34131622
970.9918213,62.36645508
969.9714355,62.01036072
968.9505005,62.13967896
968.0567017,61.12044525
967.0346069,59.3762207
966.0119629,59.55721664
964.9886475,58.80417633
963.9647827,57.35436249
962.9403687,57.11101913
962.043457,57.0803299
961.0178833,56.85187149
959.9917603,55.2125473
958.9649658,54.39212799
957.9376221,55.50232697
957.038208,54.23635864
956.0097656,54.49301529
954.9807739,54.86566925
953.9511108,54.14559174
953.0496826,54.31863022
952.0189819,54.76630783
950.9876709,54.35499573
949.9557495,53.47528458
949.0523682,54.67335129
948.0193481,54.6437149
946.9857788,54.55408096
945.9515991,54.66392517
945.0462036,55.95389557
944.0109253,56.55361938
942.9750977,57.90164566
941.9386597,57.47478485
941.031311,58.27953339
939.9937744,58.78340149
938.9556885,60.49652863
938.046875,61.57642746
937.0076904,61.38113022
935.9679565,64.41929626
935.0576782,64.81497955
934.0168457,65.77127838
932.9754028,68.74053192
932.0637207,70.64095306
931.0212402,71.19146729
929.9781494,72.90991211
929.0650024,73.7531662
928.020813,75.74877167
926.9761353,76.85457611
926.0615234,78.96685791
925.0157471,79.08456421
923.9693604,80.27432251
923.0533447,80.44129944
922.0059204,81.1408844
920.9579468,80.32382965
920.0404663,80.44335938
918.991394,79.75495148
917.9417725,78.63375092
917.0228882,78.06493378
915.972168,76.84748077
915.0523682,75.34635162
914.0006104,74.72322083
912.9483032,72.34499359
912.0270996,70.34814453
910.9736938,68.50351715
910.0515747,67.70209503
908.9971313,64.84429169
907.9421997,62.90981293
907.0186157,61.12199402
905.9625854,58.75341415
905.0380859,56.32884979
903.9810181,53.5592308
903.055603,50.87049484
901.9974976,48.97738266
900.9388428,45.48052979
900.0120239,43.3015213
898.9523315,41.29125595
898.0245972,39.34871674
896.9638672,37.01658249
896.0352173,35.73016357
894.9734497,33.3433609
894.0438843,31.08045959
892.9810791,29.35227394
892.0506592,27.53897858
890.9868164,26.72350311
890.055481,24.42014313
888.9906006,22.66048241
888.0583496,22.18077087
886.9924316,20.672575
886.0593262,19.52640724
884.9923706,18.27623749
884.0583496,17.07023621
882.9903564,16.36052513
882.055481,15.69280815
880.9865112,14.78475189
880.0506592,14.08073902
878.9806519,13.57643604
878.0439453,12.53258705
876.9729614,12.17017365
876.0354004,11.3927784
874.9633179,11.54843521
874.0248413,10.17901611
872.9518433,10.07964516
872.0124512,9.81740284
870.9384155,8.723303795
869.9981689,8.454362869
869.0575562,8.235565186
867.9819946,8.571611404
867.0404663,7.260485172
865.9639282,7.863178253
865.0215454,7.61867094
863.9440308,6.880539894
863.0007324,6.742350101
862.0570679,6.361199379
860.9780273,6.692548275
860.0335083,5.79661417
858.9534912,5.939073086
858.0080566,6.493416309
857.0622559,5.968354702
855.980835,5.553709507
855.0341187,4.858128548
853.9516602,5.671552658
853.0040894,5.752621651
852.0561523,4.160277843
850.97229,5.825291634
850.0234375,5.289501667
848.9385986,4.798892021
847.9888916,3.883840799
847.0388184,4.816971779
845.9525146,5.007142067
845.0015869,5.73355484
844.0502319,4.86569643
842.9624634,4.970837593
842.0102539,4.908931255
841.0576782,4.561711788
839.9685059,4.94297123
839.0150757,4.617794514
838.0612183,5.039060593
836.9706421,4.986454964
836.0159912,5.013137817
835.0609131,4.610358715
833.9688721,4.885912895
833.0129395,5.133248329
832.0566406,4.8479352
830.9631958,4.931920052
830.0060425,5.374504089
829.0485229,5.168597221
827.9536743,5.247620583
826.9953003,5.498025417
826.036499,5.367293358
824.9403076,5.304833889
823.9806519,5.70582962
823.0206909,5.912581921
822.0603027,5.396696568
820.9622192,5.85863018
820.0009766,6.35630846
819.0393677,6.563001633
817.9398804,6.401082039
816.977478,6.408608913
816.0146484,6.430925369
815.0514526,6.566623688
813.9501343,7.489797592
812.986084,7.399986744
812.0216675,8.104026794
811.0568848,7.690593719
809.9537964,8.461811066
808.9881592,8.666685104
808.0221558,8.903389931
807.0557861,9.044714928
805.9508667,9.202497482
804.9836426,10.57458782
804.0161133,10.05720043
803.0480957,10.68290043
801.9414063,12.10639286
800.9726563,12.47282505
800.003479,13.22843266
799.0339355,13.69615459
798.0640869,14.50355053
796.9551392,15.73042107
795.984436,15.76372814
795.0133057,17.08951569
794.0418701,17.62647057
792.9311523,19.37948799
791.9589233,19.53150177
790.9862671,21.72409821
790.0132446,22.7865696
789.039856,24.28776932
788.0661011,25.89079475
786.9527588,27.09846878
785.9782104,29.00101852
785.0032959,30.85659218
784.0279541,33.22634506
783.0523071,34.95874023
781.9368286,36.73334885
780.9603271,39.22938538
779.9835205,41.36289215
779.0063477,43.20150757
778.0287476,45.91111374
777.0508423,48.87966156
775.9327393,50.54083633
774.9540405,53.90790558
773.9749146,55.55461502
772.9954834,58.80190659
772.015686,61.55065918
771.0354614,64.91815186
770.0549316,67.14255524
768.9338989,70.7318573
767.9525757,73.75167847
766.9708862,77.0139389
765.9888306,79.18527222
765.0064087,82.0665741
764.0236206,84.41767883
763.0405273,86.89859772
762.0570068,88.47283936
760.9326172,91.37561798
759.9483643,91.75923157
758.9637451,93.88773346
757.9787598,94.98200226
756.9934082,95.36416626
756.0076904,95.34970856
755.0216675,95.06145477
754.0352783,95.35002136
753.0485229,94.76454926
752.0614014,94.35714722
750.9328003,94.21409607
749.9449463,93.39851379
748.956665,93.14453125
747.9680786,92.56269073
746.979187,90.85588074
745.9898682,90.86302185
745.0002441,90.53928375
744.0102539,90.19384766
743.0198975,89.10633087
742.0291748,88.40789795
741.038147,88.69471741
740.0467529,87.67007446
739.0549927,87.93641663
738.0629272,87.33142853
737.0704346,86.91042328
735.935791,87.45001221
734.942627,87.46107483
733.9490967,87.13191986
732.9552002,87.24358368
731.9609375,87.20083618
730.9663696,87.29886627
729.9714966,87.71595001
728.9761963,87.84616852
727.9805908,87.78661346
726.9846191,88.00907135
725.9883423,88.62290192
724.9916992,88.2542572
723.994751,88.70883942
722.9973755,89.18449402
721.9997559,89.86261749
721.001709,90.54510498
720.003418,90.65740967
719.0046997,90.9056778
718.0056763,91.98634338
717.0062866,92.25086975
716.0065918,92.67136383
715.0065918,93.24441528
714.0062256,93.21688843
713.0054932,94.0703125
712.0044556,94.54456329
711.0030518,94.90518951
710.0013428,94.98088074
708.9992676,95.3493576
707.9968872,95.17855835
706.9941406,95.62693024
705.9910889,95.44176483
704.9876709,95.7432785
703.9839478,95.75951385
702.9799194,95.90455627
701.9755249,95.76000214
700.9707642,95.22594452
699.9656982,95.32940674
698.9603271,94.60784912
697.9546509,94.39643097
696.9485474,94.95065308
695.9421997,94.64791107
694.9354858,93.78766632
693.9284668,93.0905838
693.0650635,94.43687439
692.0574341,92.94524384
691.0494385,92.95677948
690.0411377,92.71369934
689.0325317,92.26856232
688.0235596,92.53925323
687.0143433,92.5206604
686.0046997,92.30657196
684.994812,92.58211517
683.9845581,92.48458099
682.973999,92.33499146
681.9631348,92.08063507
680.9519043,92.06198883
679.9403687,91.82912445
678.9285278,92.025177
678.0609741,92.59306335
677.0485229,92.68558502
676.0357666,92.37654114
675.0227051,92.35917664
674.0092773,91.93518829
672.9956055,92.37697601
671.9815674,92.35412598
670.9671631,92.37918091
669.9525146,91.90105438
668.937561,92.28295898
668.0673218,91.93903351
667.0516968,92.30727386
666.0358276,91.93199921
665.0196533,92.28643799
664.0031128,91.25041962
662.9862671,91.92238617
661.9691162,91.72757721
660.9516602,91.81345367
659.9338989,92.28887177
659.0612793,92.30762482
658.0429688,92.58725739
657.024292,93.52514648
656.0053101,93.54927826
654.9860229,93.48055267
653.9664917,94.36306
652.9465942,94.95581818
652.0721436,94.95980072
651.0516357,95.80633545
650.0308838,96.2282486
649.0098267,96.48381805
647.9884033,96.98623657
646.9667358,97.11849976
645.9447021,97.26908875
645.0684814,97.5759201
644.0458984,97.18711853
643.0230713,97.15494537
641.9998779,96.01770782
640.9763794,95.63175201
639.9526367,95.24180603
638.9285278,94.36442566
638.0505371,93.82159424
637.0258789,92.25879669
636.0009155,91.244133
634.975708,89.82845306
633.9501343,88.6840744
633.0708618,88.12458801
632.0447998,86.9487381
631.0183716,86.48460388
629.9916992,85.36685944
628.9647217,84.9553833
627.937439,84.40858459
627.0566406,84.12780762
626.0288086,83.96295166
625.0006714,83.99766541
623.972229,84.11305237
622.9435425,84.54879761
622.0615234,84.52175903
621.0322876,85.74503326
620.0026855,86.62355804
618.9728394,87.03939056
617.942688,88.26199341
617.0595093,88.52030182
616.0288086,89.5869751
614.9978027,90.97678375
613.9665527,91.59714508
612.9349976,92.08721161
612.0505981,92.34119415
611.0184937,93.04749298
609.986084,93.05631256
608.9534302,92.56430054
608.0680542,91.68412781
607.0348511,91.25014496
606.0013428,89.38934326
604.9675903,88.67185211
603.9335327,86.09809875
603.046936,82.98448181
602.0123291,79.14605713
600.977478,76.93531036
599.9423218,72.39742279
599.0548096,69.15065765
598.019104,63.52866364
596.9831543,59.65548706
595.9468994,52.99386978
595.0584717,47.47052002
594.0216675,41.59912109
592.9846191,35.99118042
591.9473267,30.06695175
591.0579224,27.17564774
590.0200806,22.17872238
588.9819336,18.51033401
587.9435425,15.48027229
587.0532837,13.89534283
586.0143433,11.73043156
584.9751587,9.384074211
583.9356689,8.270792961
583.0444336,7.023335457
582.0044556,6.129314423
580.9642334,5.407737732
580.0723267,4.836474419
579.0315552,4.253491879
577.9905396,3.486747026
576.9492188,3.110884905
576.0564575,2.88856411
575.0145874,2.444824696
573.9725342,2.165592432
572.9301147,2.028555393
572.036499,2.057140112
570.9935913,1.87455523
569.9504395,1.796955585
569.0561523,1.542947412
568.0125122,1.59339118
566.9685669,1.412605405
566.0736084,1.446511745
565.0292358,1.149866819
563.9845581,1.344683528
562.9395752,1.357470632
562.0437622,1.280182242
560.998291,1.429750204
559.9526367,1.357094526
559.0560913,1.250001311
558.0098877,1.223949313
556.9634399,1.370989323
556.0662842,1.371677876
555.0193481,1.464739203
553.972168,1.503191948
553.0743408,1.606843233
552.0266724,1.720764279
550.9787598,2.086591005
549.930542,2.3283391
549.0318604,2.434028387
547.9832153,2.856968164
546.9342651,3.20164299
546.0349731,3.83494091
544.9855347,4.714634418
543.9358521,5.876233101
543.0359497,6.697020054
541.9857788,8.453282356
540.9353638,11.1901207
540.03479,15.96843433
538.9838867,21.32362175
537.9328003,29.41449928
537.0316162,36.19797897
535.9799805,44.69193268
534.9281006,51.97154999
534.0263062,56.00380325
532.973999,57.23140717
532.0717773,59.32069397
531.0189819,61.24287415
529.9659424,61.8841095
529.0631104,59.35819244
528.0095825,52.97005844
526.9558716,45.19158554
526.0524292,40.39661407
524.9981689,38.04805374
523.9437256,37.72861481
523.0396729,39.28160477
521.9847412,41.97859192
520.9295654,46.25708389
520.0249634,50.26286316
518.9692993,56.18613434
518.06427,62.38102722
517.0081787,69.76885986
515.9518433,75.82980347
515.0462646,78.72051239
513.9894409,77.4153595
512.9324341,72.74850464
512.0261841,65.65148926
510.96875,56.43556213
510.0621338,50.09587479
509.0042114,44.84708023
507.9460449,41.37636566
507.0388489,40.16064453
505.9802551,39.7399559
505.0726624,40.59862137
504.0136108,43.0317688
502.9543457,47.46800232
502.0461731,51.60797119
500.9864502,59.13999176
499.9264832,69.14149475
499.0177307,79.45555878
497.9573364,85.62757874
497.0482483,86.70854187
495.9873962,80.7549057
494.9263,69.84205627
494.0166321,57.21755219
492.9551392,47.07777023
492.0450745,41.32385635
490.9831238,36.04829407
490.0727234,31.94201279
489.0103455,29.25465775
487.9477234,27.84008026
487.0367432,27.69078636
485.9737244,28.71166229
485.0623779,30.5704174
483.9989014,33.74818039
482.9352417,40.59526825
482.0233154,52.61740875
480.9592285,65.8097229
480.046936,76.6961441
478.9824219,83.10183716
478.0697937,80.59082794
477.0048218,69.4491272
475.9396667,52.09204483
475.0264893,44.10454941
473.9608765,35.31605911
473.0473328,30.60353088
471.9813538,25.1808548
471.0674438,22.89661407
470.0010376,22.30743027
468.9343872,22.95950317
468.0199585,24.36293793
466.9529114,29.35642052
466.0381165,38.33437729
464.9706421,50.70785904
464.0555115,57.58237839
462.9876404,59.46453094
462.0721436,55.26474762
461.0038757,46.69275665
459.9353943,34.17889404
459.0193787,23.70357895
457.95047,14.66625309
457.0341187,10.86453438
455.9648132,7.401517868
455.0480957,5.361663342
453.9784241,3.911264896
453.0613708,3.215794563
451.991272,2.725967646
451.0738831,2.448408127
450.0033875,2.154517174
448.9327087,2.026134253
448.0147705,1.841062903
446.9436951,1.806682706
446.0254517,1.843129873
444.953949,1.85665226
444.0353699,1.940384865
442.963501,2.145153522
442.0445862,2.334854126
440.9723206,2.573853254
440.0530701,2.869904041
438.9804382,3.322969437
438.0608521,4.032182693
436.9878235,4.847677231
436.0679321,5.82450819
434.9945068,7.045118332
434.0742798,8.655900955
433.0004883,11.94062519
431.9264832,15.5880022
431.0057373,19.16080284
429.931366,25.09936333
429.0103149,29.08728409
427.9355469,35.06670761
427.0141907,42.27516937
425.9390564,47.87409973
425.017334,53.99910736
423.9418335,59.46094894
423.0198364,64.85852051
421.9439392,72.62966919
421.0216064,76.18744659
419.9453735,81.98104095
419.0227356,84.67950439
417.946106,86.04292297
417.0231323,85.07579803
415.946167,82.69676208
415.0228882,79.81330109
413.9455566,78.31816101
413.0219727,77.13670349
411.9442444,76.82929993
411.0203552,77.22099304
409.9422913,78.47754669
409.0180664,79.21525574
407.9396667,80.2879715
407.0151367,80.65358734
405.9363708,81.01187897
405.0115356,80.54589081
403.9324036,80.23734283
403.0072937,79.36489105
401.9277954,77.43166351
401.0023499,75.13631439
400.0767822,71.40380859
398.9967957,66.73254395
398.0709229,64.04920197
396.9905701,61.32221222
396.0644226,60.32081985
394.9837036,61.085392
394.057251,61.97021484
392.9761963,60.27039337
392.0494385,56.31157303
390.9680481,48.2325325
390.0409851,41.63100052
388.959259,35.80733109
388.0319214,33.58980179
386.9498596,32.84525299
386.0222168,30.98361778
384.9397888,25.8645153
384.0118713,17.61073494
382.9291382,10.7818079
382.0009155,6.75085783
381.0725708,4.161690712
379.9893188,2.409993887
379.0606995,1.532582045
377.9771118,1.129650831
377.0482178,0.901712298
375.9642944,0.807466447
375.0350952,0.657947183
373.9508667,0.776643574
373.0213928,0.801199198
371.9368286,0.805307388
371.0070801,1.009073615
370.077179,1.366167665
368.992157,2.106040955
368.0619812,2.71717
366.9766235,3.328421354
366.0461731,3.537572861
364.9605103,3.495857239
364.0297852,3.408738136
362.9437866,3.044924498
362.0127869,2.689450741
360.9264832,2.148629427
359.9952087,1.663132191
359.0638428,1.246370316
357.9770508,1.017873645
357.0454102,0.683647871
355.958313,0.476498544
355.0263977,0.204128057
353.9389954,0.248954326
353.0068054,0.010133239
352.0744934,0.16574505
350.9866333,0.030889997
350.0540466,0.033708081
348.9658813,-0.090177238
348.0330505,-0.232451201
346.9445801,0.018233845
346.0114746,0.026183316
344.9227295,-0.157585919
343.9893494,-0.160844699
343.0558777,-0.010500245
341.9666748,0
341.0329285,-0.046175729
339.9434204,0.036638942
339.0094299,0.009831219
338.0753174,-0.122799225
336.9853821,-0.030512415
336.0509949,-0.029451313
334.9607544,0.019023666
334.0261536,-0.07968469
332.9356079,-0.094018355
332.0007629,-0.021270053
331.0657654,0.010418524
329.974823,-0.071559556
329.0395813,-0.048898201
327.9483337,0.073663205
327.0128479,0.100781888
326.0772705,-0.047769975
324.9855957,-0.034978881
324.0497742,-0.165893808
322.9578247,-0.108875126
322.0217285,0.075817414
320.9295044,0.105141141
319.9931946,-0.041385535
319.0567627,-0.025253739
317.9641113,-0.008325701
317.0274353,-0.03355933
315.9345093,-0.099946313
314.9976196,0.00780256
314.0606079,-0.102673531
312.9672852,-0.140400469
312.0300293,-0.011681614
310.9364319,-0.05819121
309.9989319,-0.123580463
309.0613403,-0.137903333
307.9673462,-0.095334932
307.0295105,-0.096634522
305.9352722,-0.080470435
304.9971924,-0.072259881
304.0590515,-0.032457836
302.964386,-0.009297033
302.026001,-0.032435086
300.9310608,-0.065763928
299.9924622,-0.042606715
