XF2048,400-477-575TBDR
Wavelength (nm),%T
1100.042847,36.37103271
1098.989014,22.23228455
1098.051514,14.46245289
1096.996094,6.241991997
1096.057129,9.195124626
1095,10.5228014
1093.942139,9.457890511
1093.000977,21.51828194
1091.941406,12.96372128
1090.998901,16.01914978
1090.055664,13.41966534
1088.993652,15.0112896
1088.049072,2.069444656
1086.985474,10.76547909
1086.039429,21.69827461
1084.974365,3.213437319
1084.026855,12.38406181
1082.960083,9.634815216
1082.01123,11.91394806
1080.942871,10.38134098
1079.992554,6.173289776
1079.041504,14.62737465
1077.970825,15.18654346
1077.018433,11.96346378
1075.946167,15.14546299
1074.99231,14.06019592
1074.037842,14.11236668
1072.963257,21.83853531
1072.007324,15.99341011
1071.050781,14.37919617
1069.973877,12.60606956
1069.015991,11.65330601
1068.057373,16.72529793
1066.978149,16.45669556
1066.018066,16.50269318
1065.057373,19.08606911
1063.97583,16.61273384
1063.013794,17.36550903
1062.051025,19.34566307
1060.967285,18.32121468
1060.003174,23.91103363
1059.03833,16.54380035
1057.952148,22.27723122
1056.986084,22.10531235
1056.019287,19.43081665
1055.051758,20.9198761
1053.962646,23.02783394
1052.993774,22.86920357
1052.024292,26.3372364
1051.054199,24.44934654
1049.961914,32.2328186
1048.990479,29.17923546
1048.018311,30.10262871
1047.045532,29.73552704
1045.950317,38.27185059
1044.976074,35.11425781
1044.001343,34.70310974
1043.025879,38.08337402
1042.049683,38.47390747
1040.950806,35.95980453
1039.973389,39.08822632
1038.995239,42.56913376
1038.016479,42.46783447
1037.037109,46.89901733
1036.057007,48.98778915
1034.953735,49.07171249
1033.97229,52.63059235
1032.990356,53.19511414
1032.00769,54.04447937
1031.024292,59.52961349
1030.040405,58.00231552
1029.055786,63.93874741
1027.947388,65.62926483
1026.961548,68.1343689
1025.974976,65.74990845
1024.987793,70.97372437
1023.999939,72.78504181
1023.011475,74.84539032
1022.0224,77.12664032
1021.032715,77.47397614
1020.042358,78.83261871
1019.051392,81.09545135
1018.059753,82.11354065
1016.943481,84.23505402
1015.950562,85.0976944
1014.95697,84.18935394
1013.962769,84.68491364
1012.967957,84.43850708
1011.972534,86.01065063
1010.976501,86.19445801
1009.979797,86.7151413
1008.982483,87.134758
1007.984558,84.97716522
1006.986023,82.06237793
1005.986816,82.06420135
1004.987061,81.04053497
1003.986633,80.81851959
1002.985596,79.56114197
1001.983948,78.97209167
1000.981689,78.31250763
999.9788208,77.79499054
998.9752808,74.80989075
997.9711914,77.59455872
996.9664307,75.30484009
995.9611206,75.98723602
994.9551392,73.78987122
993.9485474,73.44203186
992.9414063,73.15005493
992.0595703,72.87906647
991.0512695,71.29568481
990.0422974,71.37811279
989.0327759,72.16220093
988.022583,71.63739777
987.0117798,72.20217896
986.0004272,71.19597626
984.9884033,70.62513733
983.9758301,71.16345978
982.9626465,71.79632568
981.9487915,71.9489212
981.0612183,71.43204498
980.0462646,71.81336975
979.0307617,71.75020599
978.0145874,71.70014954
976.9978027,71.63180542
975.9804688,72.99349976
974.9624634,73.10470581
973.9439087,74.00004578
973.0521851,74.79211426
972.0325317,74.90427399
971.012207,75.51078796
969.991333,76.83774567
968.9698486,76.48352814
967.9477539,77.14997864
967.0529175,77.71411133
966.0297241,77.65272522
965.0059204,78.62528229
963.9815674,78.59806824
962.956543,78.87937164
962.0592041,79.37419891
961.0331421,80.30718231
960.0064087,80.82551575
958.979126,81.14205933
957.9512329,81.56137085
957.0513916,81.37910461
956.0223999,82.38365936
954.9927979,81.93241882
953.9626465,81.27390289
953.060791,81.60610199
952.029541,82.42626953
950.9976807,81.73957062
949.96521,82.68280029
949.0614014,82.60638428
948.027832,83.03450012
946.9937134,82.64090729
945.9590454,81.95835876
945.0531616,82.04090118
944.017395,82.59557343
942.9810181,81.54281616
941.9440308,81.70861053
941.0361938,82.01165009
939.9981689,81.96464539
938.9595337,81.75796509
938.050293,82.08221436
937.0105591,81.59476471
935.9702759,82.33968353
935.0595093,81.27761841
934.0181274,81.97068787
932.9761963,81.21822357
932.0640259,82.16306305
931.0209961,81.65632629
929.977417,82.49815369
929.0637817,81.34723663
928.019104,82.93585968
926.973877,82.82234955
926.0587769,83.0493927
925.0124512,82.96435547
923.9655762,82.98118591
923.0490723,83.82161713
922.0011597,83.03290558
920.9525757,83.59447479
920.034668,84.44111633
918.9851074,83.74417877
917.9349365,83.99307251
917.015564,84.37141418
915.9643555,85.19464874
915.0440674,84.46173859
913.9918213,84.57444
912.9389648,85.47370911
912.0172729,86.0499115
910.9633789,85.46212769
910.0407715,85.77174377
908.9857788,86.11569977
908.0622559,86.28404999
907.0062866,85.17263031
905.949707,86.43604279
905.0247803,85.75514221
903.9671631,86.18013
903.0413208,86.68339539
901.982666,86.50643921
901.0558472,86.99208832
899.9962158,86.57639313
898.9359131,85.85372925
898.0077515,86.66203308
896.9464722,86.32507324
896.017395,86.34666443
894.9550781,85.97078705
894.0250854,86.65130615
892.961731,85.96590424
892.0308838,86.11196136
890.9664917,86.6400528
890.034668,85.82091522
888.9692383,86.45816803
888.0365601,86.42843628
886.9701538,86.62624359
886.0365601,86.18413544
884.9690552,86.32557678
884.0346069,86.71868134
882.9661255,86.75531006
882.0307007,86.79167938
880.9611816,87.46549225
880.0249634,87.16629791
878.9544067,87.52401733
878.0172729,88.30965424
876.9456787,88.25345612
876.0076294,87.68170166
874.9351196,89.08410645
873.9961548,89.39704132
873.0568237,88.54830933
871.9827881,89.56684113
871.0425415,91.04759979
869.9675293,89.95283508
869.0264282,89.81733704
867.9503174,89.41873169
867.0083618,88.86225128
866.065979,90.25902557
864.9884644,90.67337799
864.045166,89.99956512
862.9666138,89.72821808
862.022522,90.64854431
860.9429932,90.27824402
859.9979858,90.08352661
859.0525513,88.49862671
857.9715576,88.40527344
857.0252686,87.63843536
855.9432983,88.38676453
854.9961548,86.95892334
854.048584,85.92115784
852.9651489,86.44120026
852.0167236,86.3752594
850.932312,86.83985138
849.9830322,85.9144516
849.0333862,85.63056946
847.9475098,86.30197144
846.9969482,84.99445343
846.0460205,84.8454361
844.9587402,86.36112976
844.006958,86.04193878
843.0547485,84.77345276
841.9660034,86.2485733
841.0130005,87.41978455
840.0595093,86.75904083
838.9693604,87.92031097
838.0150757,88.04273224
837.0603638,88.14737701
835.968811,89.28671265
835.0133057,89.44572449
834.057373,90.14795685
832.9643555,91.30814362
832.0076294,92.06684113
831.050415,92.34702301
829.9560547,93.02024078
828.9980469,93.11778259
828.0396118,94.01933289
826.9438477,93.36802673
825.9846191,93.9056778
825.0249634,93.6374588
824.0649414,94.02222443
822.9672852,93.59396362
822.0064697,92.95585632
821.0452271,93.59023285
819.946167,93.08738708
818.9841309,92.67209625
818.0216675,91.7585144
817.0588379,90.75128174
815.9579468,90.01898193
814.9943237,89.90914154
814.0302734,89.56040192
813.0657959,89.91606903
811.9631348,90.32627106
810.9978638,89.12973022
810.0322266,91.30900574
809.0662231,90.51288605
807.961731,90.37988281
806.994873,91.54277802
806.0276489,91.69351196
805.0600586,91.62917328
803.9537354,90.37998962
802.9853516,89.6213913
802.0165405,88.91494751
801.0473633,87.00056458
799.93927,83.59143829
798.9692993,80.76268005
797.9989014,77.26291656
797.0281982,71.65572357
796.0570679,67.88522339
794.9467773,63.35378265
793.9748535,59.15034485
793.0025635,55.74311066
792.0298462,52.73183441
791.0568237,48.55554962
789.9443359,44.60221481
788.970459,40.99446106
787.9962769,37.96509171
787.0216675,33.53968048
786.0467529,30.72061539
784.9320068,26.86791992
783.9562988,24.99575233
782.9801636,22.38645172
782.0036621,19.64888191
781.0267944,17.38572884
780.0495605,16.60550308
778.932312,14.44051838
777.9542847,12.18327141
776.9758911,12.0691061
775.9971313,10.20937729
775.0180054,9.319129944
774.0385132,8.439352989
773.0586548,7.715015888
771.9384155,7.314182758
770.9577637,6.269746304
769.9767456,6.171742916
768.9954224,5.85059166
768.0136719,4.770293713
767.0316162,4.765715599
766.0491333,4.439880848
765.0663452,3.752823114
763.942688,4.29730463
762.9591064,3.33930254
761.9751587,2.950309992
760.9908447,2.990002632
760.0062256,2.724662304
759.0211792,2.548588991
758.0358276,2.790785789
757.0500488,2.123718977
756.0639648,2.938072443
754.9365845,2.094470978
753.949707,2.083944321
752.9625244,1.871583581
751.9749146,2.244341373
750.9869995,2.105678558
749.9987183,2.046793222
749.0101318,2.224142551
748.0211182,1.559210896
747.0317993,1.759005666
746.0421143,2.191669703
745.052063,2.428153992
744.0616455,2.078895807
742.9293213,2.000403404
741.9381714,2.081037045
740.9467163,2.034939528
739.954834,2.346562862
738.9626465,2.508107901
737.9700928,2.428682327
736.9772339,2.479909658
735.9839478,2.603563309
734.9903564,2.757681608
733.99646,2.96818161
733.0021362,2.921512127
732.0075073,3.303680658
731.0125732,3.569295168
730.0172119,4.019491673
729.0215454,4.060544968
728.0255737,4.145855904
727.0292358,4.787659645
726.0325317,5.578219414
725.0354614,5.788035393
724.0380859,6.291731358
723.0403442,7.702106953
722.0422974,8.629612923
721.0438843,9.966317177
720.045166,10.99649239
719.0460815,13.00563335
718.0466309,14.97057533
717.046875,17.60555267
716.046814,20.53059769
715.0463257,24.33484077
714.0455933,28.09132957
713.0444336,31.87932587
712.0430298,36.98471069
711.0411987,41.48475266
710.0391235,47.49102783
709.0366211,52.44559097
708.0338745,57.9546814
707.0307007,63.69235611
706.0272827,68.97255707
705.0234375,73.85338593
704.0193481,77.75783539
703.0148926,79.73665619
702.0100708,78.8562851
701.0049438,76.33692169
699.9995117,72.46814728
698.9937134,68.00789642
697.9876099,63.31679153
696.9812012,59.99700928
695.9744263,56.68634796
694.9672852,55.00714111
693.9598999,53.87405777
692.9521484,53.53371048
691.9440308,53.99022675
690.9356079,54.9276123
690.0710449,55.62276077
689.0620117,57.89696121
688.0526733,59.37374878
687.0429688,62.98383331
686.03302,66.61871338
685.0227051,70.54871368
684.0120239,74.57118225
683.0010986,78.50196838
681.9898071,82.45385742
680.9782104,85.49920654
679.9663086,88.53414154
678.9540405,91.4565506
677.9414673,92.79660034
676.9285889,93.56609344
676.0601196,93.83135223
675.0466309,93.11107635
674.0328369,92.8065033
673.0187378,91.59149933
672.0043335,89.95654297
670.989563,88.87727356
669.9744873,88.07875824
668.9591064,87.95445251
667.9434204,87.61284637
666.9273682,87.20085907
666.0562744,87.96440887
665.0396729,89.30847931
664.0227661,89.76587677
663.0055542,90.86287689
661.9879761,91.56452179
660.9701538,92.50723267
659.9519653,92.69104004
658.9334717,92.95181274
658.0602417,92.4630127
657.0411987,91.23119354
656.0218506,89.41326904
655.0021973,87.72439575
653.9821777,85.67615509
652.9619141,84.05364227
651.9412842,82.18563843
651.0662842,79.88155365
650.045105,78.84175873
649.0236206,77.28684235
648.0018311,76.63957214
646.9797363,76.35189056
645.9573364,76.05466461
644.9346313,76.65884399
644.0578003,77.24848938
643.0345459,78.75247955
642.0109863,80.51795959
640.9871216,82.39717102
639.9628906,83.52733612
638.9384155,84.86328888
638.0600586,86.24996185
637.0350342,87.24459076
636.0097046,87.23635864
634.9840698,87.0291748
633.9581299,84.9821701
632.9318848,83.81093597
632.052002,82.08843231
631.0252686,79.6707077
629.9981689,77.0539093
628.9707642,75.09931946
627.9430542,73.40105438
627.0619507,72.3837204
626.0337524,71.38306427
625.005188,70.97673035
623.9763794,71.24427032
622.9472656,72.33644104
622.0649414,74.04866791
621.0352783,76.72703552
620.0053101,79.29377747
618.9750977,82.15007019
617.944519,84.67506409
617.0609741,86.41873169
616.0299072,88.45627594
614.9985352,89.27529144
613.9668579,88.28692627
612.9348755,86.56067657
612.0501709,84.17998505
611.0176392,81.70635223
609.9848633,78.06221771
608.9517822,76.14348602
608.0661011,75.11634064
607.0324707,75.35166931
605.9985962,76.28276825
604.9644165,78.00727081
603.9299927,79.50157166
603.0430908,79.25468445
602.0080566,76.55509186
600.9728394,70.25626373
599.9372559,64.99539948
599.0494385,58.2303772
598.0133057,51.36330795
596.9769897,44.81107712
595.9403076,37.83005142
595.0515747,32.10535812
594.0144043,26.17802048
592.9769287,20.90801811
591.939209,16.06302071
591.0494995,12.3466301
590.0112305,9.336826324
588.9727173,7.237553596
587.93396,5.952002525
587.043335,5.034147263
586.0039673,4.272209167
584.9644165,3.442772388
584.0731201,2.948934555
583.03302,2.480457544
581.9926147,2.014848709
580.9519653,1.798393726
580.0597534,1.700317502
579.0185547,1.408110142
577.9771729,1.318369865
576.9354248,1.323352218
576.0422974,1.102652192
575.0001221,1.170752287
573.9576416,1.109195352
573.0638428,1.094639421
572.020874,1.003364086
570.9776001,1.086077094
569.934082,1.183013916
569.0393677,1.369848847
567.9953613,1.459835529
566.9510498,1.259501457
566.0557251,1.477528334
565.0109253,1.678576469
563.9658813,1.869613171
563.0698853,2.129187346
562.024353,2.384139299
560.9785156,2.85724473
559.9324341,3.507256031
559.0355835,4.575039387
557.9890137,6.071861744
556.9421997,7.872724533
556.0446777,10.04400444
554.9973755,14.04267883
553.9497681,19.40487289
553.0516357,27.38165283
552.00354,33.60639191
550.9552002,43.63418198
550.0564575,49.23726273
549.0076294,56.14613724
547.9585571,62.3646431
547.0591431,67.09464264
546.0095825,67.47153473
544.9597778,63.95692062
544.0597534,60.39496613
543.0094604,55.07143021
541.9589233,51.50369263
541.0582275,50.91311264
540.0072021,52.95515823
538.9559326,57.04994202
538.0546265,60.62765121
537.0028687,66.08625793
535.9508667,73.29397583
535.0489502,80.8531189
533.996521,86.93584442
532.9437866,91.04847717
532.0412598,93.33535767
530.9880371,94.38563538
529.9346313,94.24641418
529.0314331,93.75019836
527.9775391,92.78934479
527.0740356,92.20187378
526.0196533,91.38833618
524.9650269,90.52323914
524.0608521,88.48394012
523.0057983,86.16149902
521.9505005,81.47734833
521.0457153,78.2937851
519.9899292,76.3839035
518.9338989,73.98383331
518.0285645,72.01626587
516.9721069,70.9458313
516.0663452,71.52664185
515.0093994,72.57694244
513.9522095,75.11704254
513.0458984,77.46638489
511.9882507,80.5770874
510.9303894,82.8671875
510.023468,83.87493134
508.9651489,83.12741089
508.0578308,81.30271149
506.9990845,77.77052307
505.9400635,74.21895599
505.0321655,72.28699493
503.9727173,70.88037109
503.0644531,70.63368225
502.0045471,72.34586334
500.9444275,75.99806976
500.0355835,80.69111633
498.9750061,83.74768066
498.0657959,85.60286713
497.0047913,84.59964752
495.9435425,81.25508118
495.0337524,76.20298767
493.9720764,71.42904663
493.0618896,69.15154266
491.9997864,69.00600433
490.9374695,71.64772797
490.0267334,75.7410202
488.9639587,75.83020782
488.0528259,70.21038055
486.9896545,58.15390778
485.926239,45.19189072
485.0145569,33.78424072
483.9507141,25.21170998
483.0386658,17.06443214
481.9743958,10.48855019
481.0619812,8.211679459
479.9972839,5.7757411
478.932373,4.294149399
478.0194092,3.174707651
476.954071,2.48916769
476.0407715,2.095326424
474.9750061,1.837585449
474.0613403,1.666270375
472.9951477,1.532369971
471.928772,1.461679459
471.0145569,1.443847418
469.9477539,1.504504561
469.0331726,1.597550154
467.9659424,1.761980534
467.0510254,2.004453897
465.9833984,2.554437637
465.0681152,3.027752638
464.000061,4.043317795
462.9318237,5.556747913
462.0159912,8.27207756
460.9473267,13.02505589
460.031189,18.75174713
458.9621277,31.86477089
458.0455933,38.70014572
456.9761353,47.01665497
456.0592957,52.66863632
454.9894104,55.43034744
454.0722351,55.14044952
453.0019531,52.96886063
451.931488,50.05609894
451.0137634,49.32348633
449.9429016,50.78666306
449.0248413,53.99815369
447.9535828,59.09456635
447.0351868,62.76671219
445.9635315,66.6505127
445.0447998,69.264534
443.9727478,69.8527832
443.0536804,68.33940125
441.9812317,66.21461487
441.0618286,64.51291656
439.9890137,62.4669838
439.0693054,61.93826294
437.9960938,62.96028519
437.0760193,64.59561157
436.0024414,66.82424927
434.9286194,69.22463989
434.0080872,70.61608124
432.9338989,70.0528717
432.0130005,67.86915588
430.938446,65.3762207
430.0172424,62.77372742
428.9422913,60.04483795
428.0207825,57.52671814
426.9454651,55.10589981
426.0235901,52.54631042
424.9479065,49.74214554
424.0257568,46.60734177
422.9496765,42.50654602
422.0271912,39.69326782
420.9507751,38.09828568
420.0279541,36.80479431
418.9511719,34.75996399
418.0280457,30.92799187
416.9508667,25.75795937
416.0274353,19.39030838
414.9499207,12.88250732
414.0261536,9.410232544
412.9482727,5.641338348
412.0242004,3.968613625
410.9459534,2.929718494
410.0215759,2.436473846
408.9429932,1.974857569
408.0183105,1.854442239
406.9393311,1.759229422
406.0143433,1.845809102
404.9350281,2.041366816
404.0097351,2.228528976
402.9300537,2.765017509
402.0044556,3.334010839
400.9244385,3.870986462
399.9985352,4.299895287
399.0725098,4.283692837
397.9919739,3.928374529
397.0656433,3.265244961
395.9847412,2.869508505
395.0581055,2.453711271
393.9768677,2.263553381
393.0499268,2.032241821
391.9683533,1.919865012
391.0411377,1.736172795
389.959198,1.637807846
389.0317078,1.397717237
387.9494324,1.370237947
387.0216064,1.129369378
385.9390259,1.15880692
385.0109253,0.976801574
383.9279785,0.855521083
382.9995728,0.93455708
382.0710754,0.745963931
380.9876404,0.579831362
380.0588379,0.600142181
378.9750671,0.451207817
378.0459595,0.467350841
376.961853,0.302055299
376.0325012,0.158118486
374.9480591,0.184786558
374.0184021,0.173600733
372.9336548,0.110104993
372.0037231,0.007885377
371.0736389,0.133550331
369.9884033,0.060993578
369.058075,-0.009881244
367.9725037,-0.025942611
367.0419006,0.189117789
365.9559937,-0.075733081
365.025116,0.031707756
363.9389038,-0.101572357
363.0077515,-0.022923948
362.0764465,0.019683091
360.9897766,0.099749513
360.0582275,-0.006827185
358.9712219,-0.012845861
358.0393982,-0.017808788
356.9520874,-0.075744659
356.019989,0.01446116
354.932373,-0.081441142
354,-0.075840302
353.0675354,0.056050017
351.9794617,-0.095591716
351.0466919,-0.049019437
349.958313,0.078583062
349.0252991,-0.107024327
347.936615,0.049206235
347.0033569,0.009257761
346.0699463,0.035538778
344.9808044,-0.0166761
344.0471497,-0.047769472
342.9577332,-0.063710362
342.0238037,-0.030135499
340.934082,0.022153754
339.9999084,-0.023826692
339.0656128,-0.097846299
337.9754639,-0.041878935
337.0408936,0
335.9504395,-0.064898014
335.0156555,-0.047933079
333.9248962,0.069914088
332.9898376,-0.082062632
332.0546875,-0.0300235
330.963501,-0.042456236
330.0280762,-0.038137991
328.936615,-0.137045607
328.000946,-0.009788396
327.0651855,-0.033559538
325.9732971,-0.024269361
325.037262,-0.022715176
323.9450989,-0.044209424
323.0088196,-0.045715228
322.0724487,-0.076823451
320.9798584,-0.017759219
320.0432434,0.063820645
318.9503784,0.067306057
318.0135193,-0.052183688
317.0765381,-0.030619647
315.9832764,0.055597339
315.046051,-0.097232752
313.9525146,-0.043773979
313.0150757,0.021239549
312.0775146,-0.011720954
310.983551,0
310.0457764,0.042525191
308.9515381,-0.105763659
308.0135193,-0.047274735
307.0754089,-0.025284719
305.9807739,-0.103196219
305.0424194,-0.035858773
303.9475403,-0.066662766
303.0089722,0.018698636
302.070282,-0.048012346
300.9750061,-0.0541851
300.0360718,0.016871808
